File: Fig S04/csv/FigS4_processed_ChitosanOAc.csv
Wavenumber,Transmission
cm^{-1},a.u.
3964.7,0.99539
3882.89,0.98925
3801.07,0.97877
3734.6,0.9517
3703.92,0.91211
3690.28,0.87677
3680.06,0.84028
3666.42,0.80148
3657.9,0.7702
3657.9,0.74414
3647.67,0.71113
3637.44,0.66595
3637.44,0.63294
3627.22,0.59298
3627.22,0.56692
3616.99,0.53043
3606.76,0.49568
3606.76,0.46354
3596.54,0.42618
3586.31,0.38796
3586.31,0.3619
3577.79,0.3202
3565.86,0.28805
3555.63,0.24722
3533.47,0.19451
3524.95,0.15686
3514.72,0.12385
3509.61,0.096049
3484.04,0.057377
3458.47,0.023048
3417.57,0
3376.66,0.029358
3361.32,0.055984
3351.09,0.069874
3318.71,0.11676
3274.39,0.14915
3215.07,0.18304
3172.12,0.21321
3131.21,0.24266
3069.85,0.26983
3000.31,0.29244
2977.811,0.27286
2962.47,0.24708
2942.02,0.21724
2921.56,0.17814
2916.45,0.15989
2883.21,0.24369
2895.996,0.20678
2844.86,0.24187
2839.75,0.28665
2831.23,0.32371
2824.41,0.31617
2783.5,0.37058
2732.366,0.40239
2671,0.4352
2633.51,0.4637
2578.96,0.49551
2512.49,0.52875
2476.69,0.5599
2440.9,0.59645
2415.33,0.62741
2379.54,0.6546
2353.97,0.68354
2313.06,0.71623
2272.16,0.74891
2205.682,0.77261
2123.867,0.77081
2057.39,0.79812
2016.48,0.83472
2002.68,0.83914
1989.9,0.85917
1961.815,0.88269
1938.84,0.90186
1915.86,0.92102
1887.79,0.94019
1859.73,0.95412
1829.13,0.96109
1798.562,0.95528
1775.68,0.92973
1765.53,0.90883
1755.4,0.87834
1747.84,0.83914
1742.79,0.81649
1737.74,0.79384
1732.69,0.76945
1727.63,0.75029
1722.59,0.72416
1717.54,0.70151
1712.49,0.6806
1707.43,0.65969
1702.38,0.63705
1697.33,0.6144
1687.2,0.58478
1682.16,0.55865
1677.118,0.53252
1672.09,0.49767
1667.06,0.46631
1662.03,0.4367
1656.98,0.41056
1651.946,0.38269
1644.35,0.3583
1618.876,0.35394
1590.82,0.36701
1562.8,0.35917
1539.81,0.38269
1527.02,0.40708
1519.33,0.42799
1514.22,0.4367
1501.39,0.4759
1496.27,0.48809
1488.55,0.52206
1478.33,0.53426
1468.18,0.51509
1460.58,0.49419
1450.43,0.47067
1440.29,0.44715
1432.7,0.41927
1412.367,0.39401
1397.01,0.42624
1386.79,0.43844
1371.43,0.47328
1366.28,0.49767
1361.116,0.52903
1353.41,0.55865
1345.72,0.57723
1317.67,0.58914
1299.78,0.61266
1294.656,0.62485
1289.51,0.64924
1284.37,0.67015
1263.95,0.68234
1241.03,0.67886
1233.34,0.69976
1210.395,0.70238
1200.25,0.67712
1192.66,0.65447
1187.61,0.63008
1184.322,0.57723
1177.55,0.56446
1172.537,0.52555
1167.53,0.48374
1162.51,0.44541
1157.49,0.40708
1137.09,0.41231
1132.04,0.39314
1127.01,0.3583
1121.98,0.32694
1116.94,0.29906
1109.35,0.27293
1094.11,0.25028
1081.32,0.27467
1071.08,0.29558
1060.841,0.31649
1045.5,0.33855
1030.23,0.33042
1020.08,0.31126
1009.69,0.40359
1009.76,0.36875
1004.513,0.44192
1004.56,0.41927
999.387,0.45586
994.2174,0.4907
989.033,0.53252
983.842,0.57781
978.65,0.62311
973.466,0.66492
968.293,0.70151
963.1487,0.72416
942.67,0.76771
937.504,0.80081
929.799,0.82956
927.23,0.83914
922.115,0.84785
916.964,0.87398
896.525,0.89837
886.28,0.92276
881.1253,0.95064
873.433,0.97329
870.8551,0.98722
845.344,1
830.091,0.982
814.8362,0.96458
799.596,0.94019
781.795,0.92189
756.352,0.90186
730.908,0.88269
710.571,0.8583
692.772,0.83914
680.0858,0.81214
672.5004,0.78339
664.911,0.75639
645.39,0.74855
631.748,0.77236
606.2622,0.77294
601.1471,0.78165
565.441,0.795
550.102,0.81823
534.768,0.83856
509.238,0.86063
483.751,0.86179
478.701,0.83914
468.557,0.81533
455.807,0.8191
448.0685,0.86353
442.935,0.88095
437.809,0.89489
427.535,0.93322
422.42,0.94193
401.956,0.97851